scan rate (V/s),1
E (V),I (A)
-0.295,-2.2182E-13
-0.29,-1.15433E-13
-0.285,-1.54909E-13
-0.28,-1.82916E-13
-0.275,-2.17348E-13
-0.27,-2.60493E-13
-0.265,-3.13874E-13
-0.26,-3.79331E-13
-0.255,-4.59233E-13
-0.25,-5.56561E-13
-0.245,-6.74985E-13
-0.24,-8.18992E-13
-0.235,-9.94046E-13
-0.23,-1.20679E-12
-0.225,-1.46529E-12
-0.22,-1.77936E-12
-0.215,-2.16091E-12
-0.21,-2.62441E-12
-0.205,-3.18742E-12
-0.2,-3.87129E-12
-0.195,-4.70191E-12
-0.19,-5.71071E-12
-0.185,-6.93585E-12
-0.18,-8.42362E-12
-0.175,-1.02302E-11
-0.17,-1.24236E-11
-0.165,-1.50864E-11
-0.16,-1.83185E-11
-0.155,-2.22412E-11
-0.15,-2.70007E-11
-0.145,-3.27744E-11
-0.14,-3.9776E-11
-0.135,-4.82637E-11
-0.13,-5.85481E-11
-0.125,-7.10029E-11
-0.12,-8.6076E-11
-0.115,-1.04303E-10
-0.11,-1.26323E-10
-0.105,-1.52895E-10
-0.1,-1.84912E-10
-0.095,-2.23425E-10
-0.09,-2.69658E-10
-0.085,-3.25018E-10
-0.08,-3.91112E-10
-0.075,-4.69738E-10
-0.07,-5.62873E-10
-0.065,-6.72634E-10
-0.06,-8.01208E-10
-0.055,-9.50747E-10
-0.05,-1.12321E-09
-0.045,-1.32018E-09
-0.04,-1.54258E-09
-0.035,-1.79044E-09
-0.03,-2.06257E-09
-0.025,-2.35636E-09
-0.02,-2.66764E-09
-0.015,-2.9907E-09
-0.01,-3.31854E-09
-0.005,-3.6433E-09
2.10E-16,-3.95685E-09
0.005,-4.25156E-09
0.01,-4.52088E-09
0.015,-4.75991E-09
0.02,-4.96566E-09
0.025,-5.13707E-09
0.03,-5.27484E-09
0.035,-5.38103E-09
0.04,-5.45871E-09
0.045,-5.51149E-09
0.05,-5.54316E-09
0.055,-5.55745E-09
0.06,-5.55781E-09
0.065,-5.54731E-09
0.07,-5.5286E-09
0.075,-5.50388E-09
0.08,-5.47497E-09
0.085,-5.44331E-09
0.09,-5.41004E-09
0.095,-5.37602E-09
0.1,-5.34191E-09
0.105,-5.3082E-09
0.11,-5.27523E-09
0.115,-5.24324E-09
0.12,-5.21238E-09
0.125,-5.18274E-09
0.13,-5.15437E-09
0.135,-5.12728E-09
0.14,-5.10145E-09
0.145,-5.07685E-09
0.15,-5.05344E-09
0.155,-5.03115E-09
0.16,-5.00995E-09
0.165,-4.98976E-09
0.17,-4.97054E-09
0.175,-4.95222E-09
0.18,-4.93475E-09
0.185,-4.91807E-09
0.19,-4.90214E-09
0.195,-4.8869E-09
0.2,-4.87232E-09
0.205,-4.85835E-09
0.21,-4.84496E-09
0.215,-4.8321E-09
0.22,-4.81974E-09
0.225,-4.80786E-09
0.23,-4.79642E-09
0.235,-4.78541E-09
0.24,-4.77478E-09
0.245,-4.76453E-09
0.25,-4.75462E-09
0.255,-4.74505E-09
0.26,-4.73578E-09
0.265,-4.72682E-09
0.27,-4.71813E-09
0.275,-4.70971E-09
0.28,-4.70154E-09
0.285,-4.69361E-09
0.29,-4.6859E-09
0.295,-4.67842E-09
0.3,-4.67114E-09
0.295,-4.66398E-09
0.29,-4.65706E-09
0.285,-4.65032E-09
0.28,-4.64374E-09
0.275,-4.63732E-09
0.27,-4.63105E-09
0.265,-4.62492E-09
0.26,-4.61892E-09
0.255,-4.61305E-09
0.25,-4.6073E-09
0.245,-4.60166E-09
0.24,-4.59611E-09
0.235,-4.59065E-09
0.23,-4.58527E-09
0.225,-4.57995E-09
0.22,-4.57468E-09
0.215,-4.56944E-09
0.21,-4.56423E-09
0.205,-4.55901E-09
0.2,-4.55376E-09
0.195,-4.54845E-09
0.19,-4.54305E-09
0.185,-4.53752E-09
0.18,-4.53181E-09
0.175,-4.52585E-09
0.17,-4.51959E-09
0.165,-4.51292E-09
0.16,-4.50576E-09
0.155,-4.49798E-09
0.15,-4.48943E-09
0.145,-4.47993E-09
0.14,-4.46926E-09
0.135,-4.45717E-09
0.13,-4.44335E-09
0.125,-4.42741E-09
0.12,-4.4089E-09
0.115,-4.3873E-09
0.11,-4.36196E-09
0.105,-4.33212E-09
0.1,-4.29689E-09
0.095,-4.25521E-09
0.09,-4.20585E-09
0.085,-4.14742E-09
0.08,-4.0783E-09
0.075,-3.99669E-09
0.07,-3.90061E-09
0.065,-3.78795E-09
0.06,-3.65652E-09
0.055,-3.50416E-09
0.05,-3.32892E-09
0.045,-3.12921E-09
0.04,-2.90411E-09
0.035,-2.65359E-09
0.03,-2.37884E-09
0.025,-2.08245E-09
0.02,-1.76861E-09
0.015,-1.44302E-09
0.01,-1.11269E-09
0.005,-7.85477E-10
1.79E-16,-4.69493E-10
-0.005,-1.72389E-10
-0.01,9.93E-11
-0.015,3.4067E-10
-0.02,5.48728E-10
-0.025,7.22421E-10
-0.03,8.62437E-10
-0.035,9.70859E-10
-0.04,1.05074E-09
-0.045,1.10569E-09
-0.05,1.1395E-09
-0.055,1.15591E-09
-0.06,1.15837E-09
-0.065,1.14995E-09
-0.07,1.13329E-09
-0.075,1.1106E-09
-0.08,1.08369E-09
-0.085,1.05402E-09
-0.09,1.0227E-09
-0.095,9.90619E-10
-0.1,9.58429E-10
-0.105,9.26614E-10
-0.11,8.95519E-10
-0.115,8.65382E-10
-0.12,8.36357E-10
-0.125,8.08536E-10
-0.13,7.81965E-10
-0.135,7.56652E-10
-0.14,7.32584E-10
-0.145,7.09727E-10
-0.15,6.88037E-10
-0.155,6.67464E-10
-0.16,6.4795E-10
-0.165,6.29438E-10
-0.17,6.11871E-10
-0.175,5.9519E-10
-0.18,5.79342E-10
-0.185,5.64274E-10
-0.19,5.49934E-10
-0.195,5.36278E-10
-0.2,5.23259E-10
-0.205,5.10838E-10
-0.21,4.98976E-10
-0.215,4.87636E-10
-0.22,4.76786E-10
-0.225,4.66396E-10
-0.23,4.56436E-10
-0.235,4.46881E-10
-0.24,4.37706E-10
-0.245,4.28889E-10
-0.25,4.20408E-10
-0.255,4.12245E-10
-0.26,4.04382E-10
-0.265,3.96802E-10
-0.27,3.8949E-10
-0.275,3.82431E-10
-0.28,3.75612E-10
-0.285,3.69021E-10
-0.29,3.62646E-10
-0.295,3.56476E-10
-0.3,3.50501E-10
